Day fraction since midnight on 	photometer (mg/L)	photometer2 (volts)	Source pressure (Pa)
0.6296438733	1.4555692673	3.5525076389	104142.7500000000
0.6297018194	1.4553030729	3.5526382923	104142.7500000000
0.6297596191	1.4550112486	3.5527815819	104142.7500000000
0.6298175903	1.4553798437	3.5526006222	104142.7500000000
0.6298753869	1.4552175999	3.5526802540	104142.7500000000
0.6299333484	1.4551379681	3.5527193546	104142.7500000000
enter plug flow dye
0.6299911302	1.9925911427	3.2958970070	104142.7500000000
0.6300489965	2.0113759041	3.2871704102	104142.7500000000
0.6301069092	2.0093834400	3.2880952358	104142.7500000000
0.6301647523	1.7792830467	3.3961615562	104142.7500000000
0.6302226195	2.1679468155	3.2150740623	104142.7500000000
0.6302805312	1.5109862089	3.5253787041	104142.7500000000
0.6303383533	1.6284608841	3.4683694839	104142.7500000000
0.6303962826	1.7221140862	3.4234025478	104142.7500000000
0.6304541607	1.7377424240	3.4159400463	104142.7500000000
0.6305119542	1.7478319407	3.4111285210	104142.7500000000
0.6305698321	1.7528358698	3.4087440968	104142.7500000000
0.6306276721	1.7268378735	3.4211456776	104142.7500000000
0.6306855869	1.6902524233	3.4386529922	104142.7500000000
0.6307434874	1.6858154535	3.4407806396	104142.7500000000
0.6308013368	1.6726399660	3.4471042156	104142.7500000000
0.6308592168	1.6586660147	3.4538202286	104142.7500000000
0.6309171166	1.6436994076	3.4610238075	104142.7500000000
0.6309749006	1.6364907026	3.4644973278	104142.7500000000
0.6310328334	1.6340441704	3.4656767845	104142.7500000000
0.6310907406	1.6309841871	3.4671523571	104142.7500000000
0.6311485623	1.6443483829	3.4607112408	104142.7500000000
0.6312064800	1.6535375118	3.4562873840	104142.7500000000
0.6312642999	1.6556668282	3.4552628994	104142.7500000000
0.6313221527	1.6153969765	3.4746758938	104142.7500000000
0.6313800632	12.3954381943	0.3015910089	104142.7500000000
0.6314379643	81.7923202515	-1.3077789545	104142.7500000000
0.6314957997	68.9206237793	-1.3038882017	104142.7500000000
0.6315536011	41.2294273376	-1.2216176987	104142.7500000000
0.6316115526	31.4855175018	-1.0748696327	104142.7500000000
0.6316694405	25.2885360718	-0.8710578680	104142.7500000000
0.6317272664	19.9878273010	-0.5608913302	104142.7500000000
0.6317850956	15.4703588486	-0.1283576190	104142.7500000000
