Day fraction since midnight on 	Accumulator pressure (Pa)	DO probe (mg/L)	Source pressure (Pa)	air valve control ()	Max calibration pressure (Pa)	source pressure (Pa)	Max calibration pressure ()	Delta P ()	air flow rate(R * T )/ V ()	Fill time (s)	air fill model (Pa)
0.6464027578	31888.8828125000	-0.5167504549	101476.1328125000	0.1210595456	60885.6796875000	101476.1328125000	60885.6796875000	55885.6796875000	1779.1500000000	31.4114491119	60885.6796875000
0.6464605385	32346.8359375000	-0.5323185921	101431.9921875000	0.1220015952	60859.1953125000	101431.9921875000	60859.1953125000	55859.1953125000	1779.1500000000	31.3965631411	7933.6659429550
0.6465183804	34704.0390625000	-0.5388819575	101244.6718750000	0.1247116744	60746.8031250000	101244.6718750000	60746.8031250000	55746.8031250000	1779.1500000000	31.3333912964	16825.0434706211
0.6465762240	37379.1796875000	-0.5191736817	100963.1484375000	0.1277657967	60577.8890625000	100963.1484375000	60577.8890625000	55577.8890625000	1779.1500000000	31.2384504187	25698.8216698885
0.6466337355	41483.7734375000	-0.4040325284	100691.0078125000	0.1309859794	60414.6046875000	100691.0078125000	60414.6046875000	55414.6046875000	1779.1500000000	31.1466737979	34541.2120671749
0.6466920232	44726.6796875000	-0.1760557592	100407.8125000000	0.1346131936	60244.6875000000	100407.8125000000	60244.6875000000	55244.6875000000	1779.1500000000	31.0511690976	43515.3984858990
0.6467499103	46923.4609375000	0.0903382972	100102.7421875000	0.1353926431	60061.6453125000	100102.7421875000	60061.6453125000	55061.6453125000	1779.1500000000	30.9482872790	52399.4334159613
0.6468075420	48266.4804687500	0.3723860383	99794.4453125000	0.1387350840	59876.6671875000	99794.4453125000	59876.6671875000	54876.6671875000	1779.1500000000	30.8443173355	59876.6671875000
0.6468649776	49263.0781250000	0.6876345277	99459.5781250000	0.1401597625	59675.7468750000	99459.5781250000	59675.7468750000	54675.7468750000	1779.1500000000	30.7313868280	59675.7468750000
0.6469235558	50203.0976562500	1.0628782511	99122.1250000000	0.1409054909	59473.2750000000	99122.1250000000	59473.2750000000	54473.2750000000	1779.1500000000	30.6175842397	59473.2750000000
0.6469814817	51071.3476562500	1.4297311306	98787.4296875000	0.1425460531	59272.4578125000	98787.4296875000	59272.4578125000	54272.4578125000	1779.1500000000	30.5047116952	59272.4578125000
0.6470393424	52242.0703125000	1.7841256857	98501.3984375000	0.1455845540	59100.8390625000	98501.3984375000	59100.8390625000	54100.8390625000	1779.1500000000	30.4082506042	59100.8390625000
0.6470970781	51985.0117187500	2.1266772747	98212.6953125000	0.1438700133	58927.6171875000	98212.6953125000	58927.6171875000	53927.6171875000	1779.1500000000	30.3108884509	58927.6171875000
0.6471550063	52800.0234375000	2.4194061756	97980.7656250000	0.1472259751	58788.4593750000	97980.7656250000	58788.4593750000	53788.4593750000	1779.1500000000	30.2326725543	58788.4593750000
0.6472125367	52630.2812500000	2.6973304749	97762.6796875000	0.1480211211	58657.6078125000	97762.6796875000	58657.6078125000	53657.6078125000	1779.1500000000	30.1591253197	58657.6078125000
0.6472708193	53173.6875000000	2.9746580124	97516.3671875000	0.1477544227	58509.8203125000	97516.3671875000	58509.8203125000	53509.8203125000	1779.1500000000	30.0760589678	58509.8203125000
0.6473282381	53832.8554687500	3.2346065044	97302.3750000000	0.1487764027	58381.4250000000	97302.3750000000	58381.4250000000	53381.4250000000	1779.1500000000	30.0038923081	58381.4250000000
0.6473858742	53503.3398437500	3.4781541824	97061.1093750000	0.1481828707	58236.6656250000	97061.1093750000	58236.6656250000	53236.6656250000	1779.1500000000	29.9225279628	58236.6656250000
0.6474442035	54287.9492187500	3.7319793701	96832.4843750000	0.1500338599	58099.4906250000	96832.4843750000	58099.4906250000	53099.4906250000	1779.1500000000	29.8454265380	58099.4906250000
0.6475023050	53967.2421875000	3.9505853653	96635.0468750000	0.1510279198	57981.0281250000	96635.0468750000	57981.0281250000	52981.0281250000	1779.1500000000	29.7788427760	57981.0281250000
0.6475599365	54036.8320312500	4.1646323204	96457.3046875000	0.1502730723	57874.3828125000	96457.3046875000	57874.3828125000	52874.3828125000	1779.1500000000	29.7189010553	57874.3828125000
0.6476178345	53808.4179687500	4.3687462807	96259.2265625000	0.1526999448	57755.5359375000	96259.2265625000	57755.5359375000	52755.5359375000	1779.1500000000	29.6521012492	57755.5359375000
0.6476757566	54177.0507812500	4.5831995010	96019.5390625000	0.1524600875	57611.7234375000	96019.5390625000	57611.7234375000	52611.7234375000	1779.1500000000	29.5712691102	57611.7234375000
0.6477336125	54039.1445312500	4.7707014084	95804.3593750000	0.1518287651	57482.6156250000	95804.3593750000	57482.6156250000	52482.6156250000	1779.1500000000	29.4987019785	57482.6156250000
0.6477914252	54104.5742187500	4.9664130211	95579.5625000000	0.1535511862	57347.7375000000	95579.5625000000	57347.7375000000	52347.7375000000	1779.1500000000	29.4228915493	57347.7375000000
0.6478493183	53817.4062500000	5.1470713615	95401.1718750000	0.1526326324	57240.7031250000	95401.1718750000	57240.7031250000	52240.7031250000	1779.1500000000	29.3627311497	57240.7031250000
0.6479070427	53773.8359375000	5.3167853355	95714.2109375000	0.1530655291	57428.5265625000	95714.2109375000	57428.5265625000	52428.5265625000	1779.1500000000	29.4683003471	57428.5265625000
0.6479652135	53931.8007812500	5.4973006248	97331.8437500000	0.1483289721	58399.1062500000	97331.8437500000	58399.1062500000	53399.1062500000	1779.1500000000	30.0138303403	58399.1062500000
