Day fraction since midnight on 	Accumulator pressure (Pa)	DO probe (mg/L)	Source pressure (Pa)	air valve control ()	Max calibration pressure (Pa)	source pressure (Pa)	Max calibration pressure ()	Delta P ()	air flow rate(R * T )/ V ()	Fill time (s)	air fill model (Pa)
0.6422511102	42396.6171875000	0.0457758196	99420.7812500000	0.1386115458	59652.4687500000	99420.7812500000	59652.4687500000	54652.4687500000	1963.2000000000	27.8384620772	59652.4687500000
0.6423088632	43604.4960937500	0.0226483624	99216.3984375000	0.1397778176	59529.8390625000	99216.3984375000	59529.8390625000	54529.8390625000	1963.2000000000	27.7759978925	14356.1764328003
0.6423666897	45415.6171875000	0.0534676723	98988.4140625000	0.1441240445	59393.0484375000	98988.4140625000	59393.0484375000	54393.0484375000	1963.2000000000	27.7063205162	24164.6864830017
0.6424249755	46991.7421875000	0.2574330866	98764.9453125000	0.1448760563	59258.9671875000	98764.9453125000	59258.9671875000	54258.9671875000	1963.2000000000	27.6380232210	34070.8270599365
0.6424826611	48201.2187500000	0.4832507670	98495.5078125000	0.1479259141	59097.3046875000	98495.5078125000	59097.3046875000	54097.3046875000	1963.2000000000	27.5556767968	43835.8072181702
0.6425402528	49642.8867187500	0.7102039456	98246.4062500000	0.1498827396	58947.8437500000	98246.4062500000	58947.8437500000	53947.8437500000	1963.2000000000	27.4795455124	53604.5281387329
0.6425985394	51081.5195312500	0.9522341490	98046.4218750000	0.1508354371	58827.8531250000	98046.4218750000	58827.8531250000	53827.8531250000	1963.2000000000	27.4184255934	58827.8531250000
0.6426556696	52134.3828125000	1.1624342203	98275.8125000000	0.1529195303	58965.4875000000	98275.8125000000	58965.4875000000	53965.4875000000	1963.2000000000	27.4885327526	58965.4875000000
0.6427138953	51753.9726562500	1.3503443003	99044.8281250000	0.1494790876	59426.8968750000	99044.8281250000	59426.8968750000	54426.8968750000	1963.2000000000	27.7235619779	59426.8968750000
0.6427720692	53318.5976562500	1.5460063219	99829.1328125000	0.1524942112	59897.4796875000	99829.1328125000	59897.4796875000	54897.4796875000	1963.2000000000	27.9632638995	59897.4796875000
0.6428298958	53607.5507812500	1.7503006458	100560.7578125000	0.1503763027	60336.4546875000	100560.7578125000	60336.4546875000	55336.4546875000	1963.2000000000	28.1868656721	60336.4546875000
0.6428879657	54117.3867187500	1.9396146536	101183.9453125000	0.1516726404	60710.3671875000	101183.9453125000	60710.3671875000	55710.3671875000	1963.2000000000	28.3773263995	60710.3671875000
0.6429458424	55292.3789062500	2.1179013252	101838.1953125000	0.1526828605	61102.9171875000	101838.1953125000	61102.9171875000	56102.9171875000	1963.2000000000	28.5772805560	61102.9171875000
0.6430032104	56652.3242187500	2.3171565533	102426.0390625000	0.1537629790	61455.6234375000	102426.0390625000	61455.6234375000	56455.6234375000	1963.2000000000	28.5772805560	61102.9171875000
0.6430613812	56962.6835937500	2.5286688805	102263.0546875000	0.1530609400	61357.8328125000	102263.0546875000	61357.8328125000	56357.8328125000	1963.2000000000	28.7071275532	61357.8328125000
0.6431193423	56620.4218750000	2.7059993744	101946.5781250000	0.1508065634	61167.9468750000	101946.5781250000	61167.9468750000	56167.9468750000	1963.2000000000	28.7071275532	61357.8328125000
0.6431772651	55973.5781250000	2.8945519924	101706.4609375000	0.1516247706	61023.8765625000	101706.4609375000	61023.8765625000	56023.8765625000	1963.2000000000	28.6104048874	61167.9468750000
0.6432346438	54999.5156250000	3.0797867775	101435.6328125000	0.1492057040	60861.3796875000	101435.6328125000	61023.8765625000	56023.8765625000	1963.2000000000	28.5370194389	61023.8765625000
0.6432930089	54569.9062500000	3.3059933186	101157.1875000000	0.1505784121	60694.3125000000	101157.1875000000	60861.3796875000	55861.3796875000	1963.2000000000	28.4542480071	60861.3796875000
0.6433508110	53860.3359375000	3.5052988529	100867.2890625000	0.1493388568	60694.3125000000	100867.2890625000	60694.3125000000	55694.3125000000	1963.2000000000	28.3691485839	60694.3125000000
0.6434088088	53781.6718750000	3.7187674046	100577.6093750000	0.1509389485	60520.3734375000	100867.2890625000	60520.3734375000	55520.3734375000	1963.2000000000	28.2805488170	60520.3734375000
0.6434665073	53735.8945312500	3.9452023506	100577.6093750000	0.1489955513	60346.5656250000	100577.6093750000	60346.5656250000	55346.5656250000	1963.2000000000	28.1920159052	60346.5656250000
0.6435238614	55822.9492187500	4.1252417564	100269.7812500000	0.1550642927	60161.8687500000	100269.7812500000	60161.8687500000	55161.8687500000	1963.2000000000	28.0979364048	60161.8687500000
0.6435818692	54859.7343750000	4.3002381325	99961.4843750000	0.1512633979	59976.8906250000	99961.4843750000	59976.8906250000	54976.8906250000	1963.2000000000	28.0037136435	59976.8906250000
0.6436401636	54121.6875000000	4.4367251396	99740.9765625000	0.1506631458	59844.5859375000	99740.9765625000	59844.5859375000	54844.5859375000	1963.2000000000	27.9363212803	59844.5859375000
0.6436975451	54503.9843750000	4.5934023857	99494.9921875000	0.1539088858	59696.9953125000	99494.9921875000	59696.9953125000	54696.9953125000	1963.2000000000	27.8611426816	59696.9953125000
0.6437556434	54568.3554687500	4.7467617989	99300.6953125000	0.1551239843	59580.4171875000	99300.6953125000	59580.4171875000	54580.4171875000	1963.2000000000	27.8017609961	59580.4171875000
0.6438135930	53849.5312500000	4.8876085281	99062.7890625000	0.1515934769	59437.6734375000	99062.7890625000	59437.6734375000	54437.6734375000	1963.2000000000	27.7290512620	59437.6734375000
0.6438710518	51990.3007812500	5.0126590729	98875.2031250000	0.1485153902	59325.1218750000	98875.2031250000	59325.1218750000	54325.1218750000	1963.2000000000	27.6717205965	59325.1218750000
