Day fraction since midnight on 	Accumulator pressure (Pa)	DO probe (mg/L)	Source pressure (Pa)	air valve control ()	Max calibration pressure (Pa)	source pressure (Pa)	Max calibration pressure ()	Delta P ()	air flow rate(R * T )/ V ()	Fill time (s)	air fill model (Pa)
0.634784654	28485.95508	2.023234367	99073.46875	0.012011758	59444.08125	99073.46875	59444.08125	54444.08125	245.4	221.8585218	48351.00833
0.634842502	28113.84375	2.105262041	98983.8125	0.012072274	59390.2875	98983.8125	59390.2875	54390.2875	245.4	221.6393134	49567.81567
0.634900474	28533.99414	2.180667639	98883.5	0.012061946	59330.1	98883.5	59330.1	54330.1	245.4	221.3940505	50799.27772
0.634958309	28141.56641	2.261861801	98801.39844	0.012066487	59280.83906	98801.39844	59280.83906	54280.83906	245.4	221.1933132	52023.1397
0.635016204	28527.74023	2.349000216	98685.92188	0.012088638	59211.55313	98685.92188	59211.55313	54211.55313	245.4	220.9109744	53258.17483
0.635074052	28759.1582	2.437018633	98587.52344	0.012104495	59152.51406	98587.52344	59152.51406	54152.51406	245.4	220.6703915	54486.99197
0.635131935	28674.86523	2.514660835	98495.375	0.01208514	59097.225	98495.375	59097.225	54097.225	245.4	220.4450896	55711.82121
0.635189831	28878.88281	2.590230703	98386.03125	0.012127307	59031.61875	98386.03125	59031.61875	54031.61875	245.4	220.1777455	56931.92921
0.635247629	29166.67578	2.670017481	98298.10156	0.012154334	58978.86094	98298.10156	58978.86094	53978.86094	245.4	219.9627585	58167.27057
0.635305548	28736.83789	2.750988722	98145.32031	0.012112838	58887.19219	98145.32031	58887.19219	53887.19219	245.4	219.5892102	58887.19219
0.635363379	28971.16211	2.829182863	97974.3125	0.012194377	58784.5875	97974.3125	58784.5875	53784.5875	245.4	219.1710982	58784.5875
0.635421193	28891.13281	2.901092291	97804.33594	0.012220123	58682.60156	97804.33594	58682.60156	53682.60156	245.4	218.7555076	58682.60156
0.635479146	28739.87695	2.978762627	97608.40625	0.012276089	58565.04375	97608.40625	58565.04375	53565.04375	245.4	218.2764619	58565.04375
0.635537011	29189.71094	3.054700136	97407.0625	0.012270997	58444.2375	97407.0625	58444.2375	53444.2375	245.4	217.7841789	58444.2375
0.635594813	28861.36133	3.129312992	97197.59375	0.012252349	58318.55625	97197.59375	58318.55625	53318.55625	245.4	217.2720304	58318.55625
0.635652678	28974.41016	3.204833031	96981.86719	0.012297098	58189.12031	96981.86719	58189.12031	53189.12031	245.4	216.7445816	58189.12031
0.635710635	29505.90234	3.283412695	96759.41406	0.01233127	58055.64844	96759.41406	58055.64844	53055.64844	245.4	216.2006864	58055.64844
0.635768417	28873.76563	3.363683939	96538.71875	0.012297154	57923.23125	96538.71875	57923.23125	52923.23125	245.4	215.661089	57923.23125
0.635826361	28897.30078	3.44598484	96304.8125	0.012404934	57782.8875	96304.8125	57782.8875	52782.8875	245.4	215.0891911	57782.8875
0.635884186	28695.70898	3.51675415	96131.15625	0.012380798	57678.69375	96131.15625	57678.69375	52678.69375	245.4	214.6646037	57678.69375
0.635942076	28426.08594	3.583978891	95980.41406	0.012373106	57588.24844	95980.41406	57588.24844	52588.24844	245.4	214.2960409	57588.24844
0.636000009	28382.41016	3.654938221	95848.07813	0.012367224	57508.84688	95848.07813	57508.84688	52508.84688	245.4	213.9724812	57508.84688
0.63605788	28578.23633	3.722925901	95759.45313	0.012378269	57455.67188	95759.45313	57455.67188	52455.67188	245.4	213.7557941	57455.67188
0.636115659	29060.80664	3.795272112	95636.08594	0.012443267	57381.65156	95636.08594	57381.65156	52381.65156	245.4	213.4541628	57381.65156
0.636173586	29857.31641	3.862191916	95697.49219	0.012513765	57418.49531	95697.49219	57418.49531	52418.49531	245.4	213.6043004	57418.49531
0.636231429	30250.97656	3.940397978	97128.28906	0.0124278	58276.97344	97128.28906	58276.97344	53276.97344	245.4	217.1025812	58276.97344
0.636289319	30685.33594	4.019898415	98739.29688	0.012248868	59243.57813	98739.29688	59243.57813	54243.57813	245.4	221.0414757	59243.57813
0.636347194	30823.55859	4.087419987	100349.5391	0.012047886	60209.72344	100349.5391	60209.72344	55209.72344	245.4	224.9784981	60209.72344
0.636405032	30607.33789	4.154227734	100629.1875	0.012007577	60377.5125	100629.1875	60377.5125	55377.5125	245.4	225.6622351	60377.5125
0.636462958	29820.29297	4.225564957	100329.1016	0.011967441	60197.46094	100329.1016	60197.46094	55197.46094	245.4	224.9285287	60197.46094
0.636520755	29607.22461	4.296092987	100040.1328	0.012009012	60024.07969	100040.1328	60024.07969	55024.07969	245.4	224.2220036	60024.07969
0.636578668	29390.51172	4.353009701	99773.42188	0.01201562	59864.05313	99773.42188	59864.05313	54864.05313	245.4	223.5698986	59864.05313
0.636636547	29227.74609	4.415788651	99478.21875	0.011992706	59686.93125	99478.21875	59686.93125	54686.93125	245.4	222.8481306	59686.93125
0.636694449	28393.67188	4.485766411	99187.85938	0.012001243	59512.71563	99187.85938	59512.71563	54512.71563	245.4	222.1382055	59512.71563
0.636752278	28521.7168	4.560438633	98935.03906	0.012062015	59361.02344	98935.03906	59361.02344	54361.02344	245.4	221.5200629	59361.02344
0.636810127	27932.4375	4.621209621	98711.14844	0.01205341	59226.68906	98711.14844	59226.68906	54226.68906	245.4	220.9726531	59226.68906
0.636868032	27817.89258	4.686762333	98436.74219	0.012116265	59062.04531	98436.74219	59062.04531	54062.04531	245.4	220.3017331	59062.04531
0.636925884	28236.54883	4.744037151	98198.60156	0.012124954	58919.16094	98198.60156	58919.16094	53919.16094	245.4	219.7194822	58919.16094
0.636983813	27801.87695	4.797647953	97975.45313	0.01210205	58785.27188	97975.45313	58785.27188	53785.27188	245.4	219.173887	58785.27188
